ARQUIVO DE REFERENCIA
Usuário: PAULO
Amostra: DETECTOR DE SILICIO
Comentário: 4 A e 23.8 V
Area: 5.1070515574919 mm²
Interpolação pro 830nm: ≈0.949262307412221 (0,6 A/W)
Responsividade máxima = 0,6320697612 A/W
320 Hz
Com filtros
Todas Grades
Parâmetros: vmode 1 sen 27 acgain 0 tc 10
Tipo: Absoluta
Responsividade (A/W)	Comprimento de onda(nm)
0,0115303718897179 203,177516
0,0115303718897179 205,285245
0,0125779928962433 208,448285
0,0136267040390917 213,719053
0,0146754151819403 218,989822
0,0146754151819403 221,09755
0,0157230361884656 227,422183
0,0167717473313141 232,692951
0,018868079480688 242,180624
0,0209644116300619 247,45284
0,0220120326365872 250,61588
0,0230607437794358 252,725056
0,0251570759288096 255,889544
0,026204696935335 257,99872
0,0303984513704059 265,381559
0,0345911156691536 271,710535
0,0366874478185275 274,875023
0,0398314009744268 279,094822
0,0429764442666491 283,314622
0,045072776416023 286,479109
0,0492654407147707 292,808085
0,0513617728641446 294,918708
0,0555555272992155 301,247684
0,0586994804551148 306,521348
0,0607958126044887 309,685835
0,063940855896711 313,905635
0,0670848090526102 319,179298
0,0702298523448324 323,399098
0,0733748956370553 327,618897
0,0754712277864287 331,837249
0,0796638920851767 337,112361
0,0807115130917019 339,221537
0,0817602242345507 340,276848
0,0828089353773989 341,33216
0,0838565563839241 343,441336
0,087001599676147 349,768864
0,0890979318255203 352,933352
0,0901455528320462 356,096392
0,0922418849814202 360,314744
0,0932905961242684 365,585512
0,0943382171307936 371,910145
0,0964356394164906 378,236225
0,0974832604230164 380,345401
0,0995795925723898 386,671481
0,100628303715239 388,780657
0,101675924721764 390,889833
0,103772256871138 393,000457
0,10691730016336 398,27412
0,109013632312734 400,384744
0,111109964462108 402,495368
0,112158675604956 403,550679
0,11425500775433 404,607439
0,116351339903704 406,718062
0,118447672053078 407,774822
0,120544004202452 408,831581
0,121591625208978 409,886893
0,123689047494674 410,943652
0,1247366685012 411,998964
0,127881711793422 413,057171
0,128929332799947 414,112483
0,133121997098695 416,226002
0,138363372540291 419,394832
0,141508415832514 420,453039
0,144652368988413 422,565111
0,146748701137787 423,62187
0,148845033287161 424,678629
0,151990076579383 426,790701
0,154086408728757 427,84746
0,158279073027505 429,960979
0,160375405176879 431,017738
0,162471737326253 432,074498
0,168761823910697 435,244776
0,172954488209445 437,358295
0,177147152508193 439,471813
0,179243484657567 440,528573
0,182388527949789 442,640644
0,185532481105689 443,698851
0,191822567690133 446,869129
0,192870188696658 447,924441
0,19915918514478 452,148583
0,202304228437002 454,260654
0,204400560586376 455,317414
0,211738268177346 459,543004
0,215930932476094 462,710387
0,220123596774842 465,87777
0,22431626107359 469,045153
0,228508925372338 472,212536
0,233750300813934 476,43523
0,236895344106156 478,547302
0,241088008404903 481,714685
0,2463293838465 484,883515
0,252618380294622 489,107658
0,256811044593369 492,275041
0,258907376742743 493,3318
0,263100041041491 495,445319
0,265196373190865 496,502078
0,267292705340239 497,558838
0,269389037489613 499,669461
0,273582791924684 501,78298
0,275679124074058 502,839739
0,277775456223431 503,896499
0,28091940937933 504,954706
0,283015741528704 506,011465
0,286160784820927 508,123536
0,292449781269049 510,23995
0,293498492411897 510,241398
0,296642445567796 511,299605
0,29873877771717 512,356364
0,301883821009392 513,414571
0,303980153158766 514,471331
0,310269149606888 516,587745
0,311317860749737 517,643057
0,314462904041959 518,701264
0,317606857197858 519,759471
0,324944564788828 521,877332
0,329137229087576 523,990851
0,334378604529172 526,105817
0,337522557685071 527,164025
0,343812644269516 529,280439
0,351149261724163 532,452164
0,35639063716576 534,567131
0,362679633613881 536,683545
0,364775965763255 537,740304
0,372113673354225 540,91203
0,376306337652973 541,971685
0,380499001951721 544,085203
0,385740377393317 547,254034
0,386789088536165 548,309346
0,393078084984287 551,479624
0,397270749283035 554,647007
0,402512124724631 557,815838
0,404608456874005 559,926461
0,408801121172752 563,093844
0,410897453322126 566,258332
0,414042496614349 570,478131
0,415090117620874 572,587307
0,417186449770248 574,697931
0,420331493062471 579,971595
0,423476536354693 585,245258
0,426620489510592 590,518922
0,43081315380934 594,740169
0,432909485958714 596,850793
0,436054529250936 600,016728
0,437103240393785 602,125904
0,439199572543159 604,236528
0,443392236841906 607,40391
0,447584901140654 611,625158
0,45282627658225 615,847852
0,457018940880998 619,015235
0,461211605179746 623,236482
0,465404269478494 626,403865
0,470645644920089 631,680424
0,475885930225363 635,903119
0,480079684660434 640,124366
0,485319969965707 644,347061
0,489512634264455 648,568308
0,492657677556677 651,734244
0,497899052998273 657,010802
0,502091717297021 661,23205
0,506284381595769 665,453297
0,511525757037365 671,78372
0,514669710193264 676,003519
0,51991108563486 681,280078
0,524103749933609 686,55519
0,526200082082982 689,719677
0,529345125375204 692,885613
0,533537789673952 697,10686
0,538779165115548 703,437283
0,544019450420822 709,767706
0,54506816156367 711,876882
0,549260825862418 716,098129
0,554502201304014 721,374688
0,55974357674561 725,597383
0,563936241044358 730,872494
0,569176526349631 737,202917
0,572321569641854 741,422717
0,575466612934076 744,588652
0,57756294508345 749,860868
0,579659277232823 755,133084
0,580706898239349 755,134532
0,581755609382197 761,459164
0,582803230388723 764,622204
0,582803230388723 769,891525
0,583851941531571 777,270022
0,584899562538097 783,594655
0,585948273680946 790,973152
0,58804460583032 797,299232
0,589093316973168 802,57
0,591189649122542 808,896081
0,594333602278441 816,277473
0,595382313421289 819,440513
0,596429934427815 822,603553
0,599574977720037 828,931081
0,601671309869411 834,203297
0,604816353161633 839,47696
0,606912685311007 844,749176
0,609009017460381 850,021393
0,612152970616281 856,34892
0,615298013908503 859,514856
0,617394346057877 862,679343
0,620539389350099 866,899143
0,624732053648846 873,228118
0,627877096941069 878,501782
0,631021050096969 884,82931
0,632069761239817 889,046214
0,632069761239817 894,315535
0,631021050096969 899,583408
0,627877096941069 904,848386
0,624732053648846 909,0595
0,622635721499473 911,164333
0,617394346057877 916,426416
0,612152970616281 920,634635
0,605863974168159 924,841406
0,599574977720037 929,048177
0,594333602278441 932,202531
0,592237270129067 934,307364
0,584899562538097 938,512688
0,57756294508345 942,718011
0,575466612934076 944,822844
0,57022523749248 947,977198
0,566032573193732 950,079136
0,56288752990151 953,236386
0,557646154459913 956,39074
0,555549822310539 958,495574
0,55240586915464 960,598959
0,547164493713044 963,753313
0,541923118271448 966,907668
0,535634121823326 971,114439
0,529345125375204 975,32121
0,523056128927083 978,474117
0,516766042342638 982,680888
0,511525757037365 984,781378
0,504188049446395 987,932837
0,496850341855424 991,084296
0,490561345407303 993,183339
0,484272348959182 995,282382
0,479030973517585 997,382872
0,474838309218837 998,430946
0,470645644920089 999,479019
0,46330793732912 1001,576614
0,455970229738149 1003,674209
0,451777565439401 1004,722283
0,446536189997805 1005,768909
0,447584901140654 1005,770357
0,443392236841906 1006,81843
0,43815086140031 1007,865056
0,433958197101562 1008,91313
0,429765532802814 1009,961204
0,424524157361218 1011,00783
0,418235160913097 1012,053008
0,410897453322126 1013,096739
0,40565607788053 1014,143365
0,401463413581783 1015,191439
0,396223128276509 1016,238065
0,390981752834913 1017,284691
0,385740377393317 1018,331317
0,379451380945195 1019,376496
0,376306337652973 1020,426017
0,370017341204851 1021,471196
0,361632012607356 1022,513479
0,364775965763255 1022,517822
0,355343016159234 1023,558657
0,349052929574789 1024,603836
0,343812644269516 1025,650462
0,337522557685071 1026,69564
0,332282272379799 1027,742267
0,324944564788828 1028,785997
0,319703189347232 1029,832623
0,313414192899111 1030,877802
0,30607648530814 1031,921533
0,302932532152241 1032,971054
0,295594824561271 1034,014785
0,291402160262523 1035,062859
0,285112073678078 1036,108037
0,278823077229957 1037,153216
0,271485369638987 1039,250811
0,265196373190865 1040,295989
0,258907376742743 1041,341168
0,253666001301147 1042,387794
0,2463293838465 1043,431525
0,241088008404903 1044,478151
0,234799011956782 1045,523329
0,229557636515186 1046,569955
0,226412593222964 1047,619477
0,220123596774842 1049,718519
0,212785889183872 1050,76225
0,214882221333246 1050,765145
0,20649689273575 1052,861293
0,200207896287628 1053,906471
0,196015231988881 1054,954545
0,190773856547285 1056,001171
0,184484860099163 1058,100214
0,179243484657567 1059,14684
0,175050820358819 1060,194913
0,170858156060071 1061,242987
0,163520448469101 1063,340582
0,159327784170353 1064,388656
0,151990076579383 1066,486251
0,147797412280635 1067,534325
0,141508415832514 1069,633367
0,137315751533766 1070,681441
0,133121997098695 1071,729515
0,125785379644048 1073,82711
0,119495293059604 1075,926152
0,112158675604956 1078,023747
0,109013632312734 1079,073269
0,103772256871138 1080,119895
0,0974832604230164 1082,218937
0,0901455528320462 1084,316532
0,0859528885332981 1085,364606
0,0807115130917019 1087,465096
0,0744225166435805 1089,564139
0,068133520195459 1090,609318
0,0628921447538625 1092,709808
0,0576518594485894 1093,756434
0,0534581050135185 1094,804508
0,0482178197082454 1096,904998
0,0429764442666491 1097,951624
0,0408801121172752 1099,002593









