ARQUIVO DE REFERENCIA
AMOSTRA: IGA-010-E-LN6N (-196)
Usu√°rio: Paulo Henrique Diniz
Tipo: Normalizada
EixoY(0-1)	Comprimento de onda(nm)


0.206162 800.544929
0.209671 804.665476
0.215303 807.619325
0.221366 811.164216
0.227945 814.283825
0.233303 817.46471
0.239586 820.42513
0.245354 823.758279
0.251695 827.131926
0.258529 830.433036
0.264255 833.277969
0.269674 835.960437
0.275002 838.232191
0.280746 841.358753
0.287414 844.208544
0.293334 846.941857
0.299831 849.678143
0.305347 851.886517
0.311403 854.805546
0.318537 857.207269
0.324707 859.314434
0.331286 862.002883
0.337632 864.400542
0.34492 866.803058
0.351438 869.201608
0.357267 871.258755
0.363974 873.320422
0.369926 875.378204
0.376906 877.779133
0.383071 880.17586
0.388806 881.942935
0.394278 883.949979
0.400044 886.368787
0.406099 888.03912
0.411238 889.780848
0.417402 892.177575
0.424897 894.87074
0.431143 897.026564
0.436725 899.625414
0.444199 902.153572
0.452723 904.606699
0.459819 906.923764
0.465987 909.27224
0.471985 911.040675
0.477537 913.096394
0.484531 915.25607
0.491696 917.802749
0.498222 919.689732
0.504717 921.924067
0.511601 924.083176
0.517661 926.141512
0.523413 928.198263
0.529703 930.354313
0.5362 932.994075
0.544024 935.737202
0.550777 938.069395
0.556899 939.857769
0.563368 942.931764
0.568696 945.155251
0.575015 948.397398
0.581072 950.79357
0.586223 953.45132
0.591388 956.03918
0.596726 958.798375
0.602524 962.575328
0.608098 966.136126
0.613467 969.880149
0.618331 973.283719
0.623315 977.02576
0.628127 981.104763
0.632397 985.518826
0.637237 989.413689
0.641347 993.605787
0.645869 997.413016
0.650787 1001.735496
0.654846 1005.414117
0.658806 1009.952799
0.662524 1013.909451
0.666048 1017.981814
0.668925 1022.235126
0.671617 1025.519709
0.674283 1029.317371
0.676996 1033.385555
0.679001 1037.480801
0.681891 1041.350258
0.685355 1045.591239
0.687781 1049.770562
0.691133 1053.72942
0.69456 1057.801286
0.69768 1061.871566
0.701261 1065.944225
0.704457 1070.014901
0.708039 1074.08756
0.711466 1078.159426
0.714663 1082.230102
0.718167 1086.302365
0.721287 1090.372645
0.724329 1094.442528
0.727372 1098.512411
0.730528 1102.245026
0.732386 1105.970956
0.734737 1110.037271
0.736626 1114.101206
0.738976 1118.167521
0.740788 1122.23106
0.742985 1126.296582
0.745181 1130.362103
0.747378 1134.427625
0.750267 1138.496715
0.752771 1142.563823
0.756275 1146.636085
0.760186 1150.372594
0.763976 1154.784179
0.76825 1158.860406
0.772831 1162.93822
0.778181 1167.019999
0.783839 1171.103364
0.789113 1175.184746
0.79354 1179.261767
0.798373 1182.74562
0.802797 1185.661059
0.807686 1189.47018
0.812498 1193.549183
0.816385 1197.864739
0.820829 1200.937837
0.825016 1205.100609
0.828521 1209.172872
0.831717 1213.243548
0.835145 1217.315414
0.838264 1221.385694
0.841922 1225.458749
0.844581 1229.52665
0.8477 1233.59693
0.851051 1237.668399
0.854324 1241.739472
0.857367 1245.809355
0.860256 1249.830183
0.863991 1253.951898
0.867111 1258.022177
0.870846 1262.095629
0.874504 1266.168685
0.878393 1270.24293
0.882051 1274.315985
0.885478 1278.387851
0.888982 1282.460114
0.891871 1286.529204
0.89476 1290.598294
0.897572 1294.666988
0.899304 1299.067966
0.902042 1302.798428
0.903085 1306.858002
0.904666 1310.920351
0.905632 1314.979528
0.906598 1319.038706
0.907486 1323.097486
0.908298 1327.155871
0.908495 1331.211083
0.908845 1335.267088
0.909196 1339.323093
0.909854 1343.380684
0.91007 1347.67732
0.910436 1351.25076
0.911212 1355.550285
0.911947 1359.608273
0.912452 1363.665071
0.912802 1367.721076
0.912922 1371.775892
0.913657 1375.83388
0.913622 1379.887902
0.913665 1383.942321
0.914015 1387.998326
0.914289 1392.053935
0.915332 1396.113509
0.914888 1400.052805
0.916494 1404.227898
0.917383 1408.286679
0.918271 1412.345459
0.918854 1416.233737
0.91959 1420.122807
0.921354 1424.765265
0.921477 1428.609492
0.922867 1432.977991
0.92402 1436.941607
0.924649 1440.516407
0.925305 1444.815309
0.925684 1449.141741
0.925929 1452.926923
0.927626 1456.989867
0.931531 1461.015935
0.934991 1464.985634
0.937331 1469.202491
0.938989 1473.265237
0.939878 1477.324017
0.94072 1481.481374
0.939655 1485.431269
0.937621 1489.474982
0.933587 1493.508386
0.928856 1496.454585
0.924565 1498.276244
0.918845 1499.21607
0.912301 1499.817815
0.905914 1500.122739
0.901574 1500.269293
0.894428 1500.570311
0.888363 1501.423894
0.882429 1502.704482
0.87408 1503.843923
0.866415 1504.142265
0.859947 1504.953545
0.854446 1505.378015
0.848571 1505.90846
0.842167 1506.044372
0.835851 1506.714008
0.829427 1507.188523
0.823049 1507.691385
0.816296 1508.377322
0.809296 1508.746657
0.802577 1509.612959
0.79083 1510.061555
0.796699 1510.091803
0.784573 1510.308471
0.777921 1511.017449
0.77116 1511.388019
0.764859 1511.896104
0.759185 1512.317321
0.75289 1512.645244
0.747254 1513.156755
0.741782 1513.466397
0.735062 1513.90475
0.728226 1514.54521
0.723313 1515.100669
0.713195 1515.346141
0.71908 1515.376475
0.708092 1515.657687
0.702227 1515.965307
0.695534 1516.099728
0.688237 1516.52867
0.680985 1517.207209
0.675136 1517.514908
0.668606 1518.269565
0.656511 1518.432456
0.66205 1518.461005
0.651082 1519.080172
0.644559 1519.231555
0.636887 1519.344849
0.630234 1520.081174
0.623028 1520.75995
0.616008 1521.264324
0.608546 1522.070489
0.602119 1522.168745
0.594374 1522.774488
0.587292 1523.481257
0.580001 1523.612596
0.574555 1523.981096
0.562532 1524.367174
0.567916 1524.39493
0.556372 1525.011123
0.549934 1525.113076
0.543751 1525.621764
0.531595 1525.784337
0.537363 1525.926688
0.525185 1526.026405
0.519034 1526.805539
0.512877 1527.320796
0.505608 1527.934893
0.492356 1528.568847
0.498371 1528.57329
0.486482 1529.254489
0.480638 1529.35064
0.474443 1529.656555
0.468632 1529.964453
0.462321 1530.269773
0.456318 1530.57668
0.449948 1530.678982
0.443848 1531.525949
0.438046 1531.969032
0.431842 1532.139763
0.425609 1532.276562
0.418841 1533.086296
0.411984 1533.388801
0.405739 1533.734682
0.399149 1534.151179
0.392033 1534.704931
0.3852 1534.939988
0.379889 1535.250464
0.37247 1535.955492
0.366111 1536.192992
0.359617 1536.29466
0.35322 1536.802245
0.346756 1537.106773
0.339721 1537.678645
0.332112 1538.38269
0.324994 1539.089271
0.31829 1539.324992
0.310361 1540.365241
0.304028 1540.980947
0.297791 1541.6245
0.284972 1542.193901
0.29107 1542.197987
0.279015 1542.503513
0.272868 1542.9949
0.265466 1543.444752
0.258915 1543.883977
0.252648 1544.527371
0.244816 1545.027561
0.236827 1545.999928
0.230847 1546.306954
0.22597 1547.536687
0.220142 1548.182347
0.20865 1548.557483
0.213906 1548.825899
0.201838 1549.350913
0.195761 1550.180299
0.189517 1551.077199
0.183081 1552.03192
0.177337 1553.463826
0.170869 1554.106189
0.164982 1554.41369
0.159504 1555.399003
0.152333 1556.30802
0.145648 1557.933855
0.139009 1558.963963
0.132427 1560.665029
0.125477 1561.980604
0.119404 1563.300699
0.113541 1565.184963
0.107179 1566.994258
0.100721 1568.513467
0.093742 1570.330843
0.088088 1571.786626
0.081914 1573.878428
0.075048 1575.910358
0.069507 1577.9089
0.064029 1579.907758
0.058066 1582.241973
0.052052 1584.865507
0.046661 1586.91308
0.041401 1588.961334
0.035841 1591.538942
0.030548 1593.635287
0.025447 1596.408323
0.020644 1599.211852
0.015138 1602.96739
0.010104 1606.995639
0.005759 1610.62202
0.004788 1614.400937
0.004754 1618.454959
0.004899 1622.509907
0.007246 1626.576203
0.008608 1630.589157
0.01087 1634.703281
0.012163 1638.493394
0.014032 1642.827979
0.014402 1647.125409
0.014458 1650.668294
0.01407 1655.232094
0.013164 1659.040303
0.01295 1662.948604
0.012903 1667.147356
0.011957 1671.148415
0.011989 1675.25104
0.011339 1679.30189
0.011151 1683.355119
0.010809 1687.407556
0.010467 1691.459992
0.010433 1695.514015
0.010394 1699.68063
0.00998 1703.620077
0.009945 1707.6741
0.009834 1711.727726
0.0098 1715.781748
0.009766 1719.835771
0.009972 1724.035826
0.009327 1728.144616
0.009531 1731.997158
0.010223 1735.910133
0.01021 1740.109055
0.009483 1744.159509
0.010331 1748.555927
0.009823 1752.028339
0.009919 1756.324352
0.009654 1760.377185
0.00962 1764.431208
0.009431 1768.484437
0.009076 1772.354914
0.009901 1776.595258
0.009867 1780.64928
0.009848 1784.703382
0.009999 1788.758356
0.009519 1792.742512
0.009038 1796.861802
