ARQUIVO DE REFERENCIA
AMOSTRA: IS-010-E-LN6N
Usuário: Paulo Henrique Diniz
Área: 0.7853981634 mm²
Responsividade máxima: 430000 V/W 
Tipo: Absoluta
Método para achar os pontos abaixo: Multiplicação da curva normalizada pela responsividade máxima.
Responsividade(V/W)	Comprimento de onda(nm)
120419.35 2009.590517
121064.78 2027.561147
121793.63 2045.998466
122980.43 2064.476428
123471.49 2084.27061
123892.03 2100.537122
125365.64 2121.337128
125424.98 2138.183992
126671.98 2156.667301
127620.99 2176.502126
128741.57 2194.055547
129870.75 2212.0691
129996.74 2230.452942
130325.69 2248.395477
131927.01 2266.910231
132158.78 2285.76276
133253.99 2299.639414
134098.51 2322.68018
134562.05 2341.093969
135634.47 2358.183838
137639.13 2373.519173
138279.83 2391.948651
139590.9 2406.610009
140858.97 2424.329644
141359.06 2438.153535
143153.45 2452.092222
145328.39 2470.657885
147017.86 2485.225362
148909.86 2505.424386
150236.84 2528.507934
151528.56 2547.913857
153092.47 2565.506638
154682.61 2582.489333
155878.44 2600.202549
157089.32 2618.68265
158982.61 2636.270967
159709.74 2648.074322
160743.03 2661.110863
161709.67 2674.848709
163062.02 2688.492305
163707.02 2702.457519
164656.89 2716.830918
165927.54 2731.999378
167085.1 2747.540053
168195.36 2762.184687
169225.21 2776.947389
170654.53 2792.845825
171861.54 2808.313129
173152.83 2826.800362
174784.25 2842.766373
176283.23 2854.637086
177973.99 2866.862801
179442.44 2877.883209
180762.97 2891.269158
182083.07 2905.165778
183465.95 2920.174704
185065.98 2933.959474
186636.34 2948.31192
188186.92 2964.652982
189707.4 2979.205492
191162.95 2994.134477
192697.62 3010.346724
194292.92 3022.354482
195663.76 3036.689241
197010.52 3053.438061
198362.87 3066.605485
199777.57 3082.168969
201095.09 3098.489361
202801.33 3112.166493
204202.27 3125.55958
205641.48 3140.869876
207306.44 3155.307272
208802.41 3170.112429
210322.03 3183.873638
212163.29 3200.393614
214042.39 3217.912641
215648.01 3235.66223
217591.61 3252.80369
219344.29 3269.652914
221253.06 3284.592293
222365.9 3299.66969
224241.13 3317.749413
225449.43 3334.391987
227327.24 3352.931265
228693.78 3368.363078
230129.55 3379.207844
231453.52 3396.932468
232048.64 3413.979983
232877.68 3433.344836
233350.68 3452.218756
232995.93 3469.0289
233007.54 3488.933673
232894.02 3512.348726
233271.13 3530.29554
233155.89 3548.657992
234270.45 3567.129536
235746.64 3585.633166
236065.27 3604.034121
238628.93 3620.337634
240153.28 3638.845542
241842.75 3652.774963
243488.36 3662.74541
245181.27 3676.934256
246613.6 3687.646987
248384.34 3700.945472
250060.05 3712.577081
252155.01 3727.442926
253763.64 3737.913271
255344.32 3748.770877
257034.22 3762.318097
259274.52 3772.467634
260986.35 3780.147402
262813.85 3790.017359
264650.38 3801.919117
266114.1 3816.722513
268378.91 3829.28744
269938.09 3845.118552
272069.17 3859.852644
274210.14 3872.545862
276051.4 3887.509076
277860.84 3899.936416
279654.37 3916.919871
281520.14 3931.885233
283094.37 3940.573138
285053.02 3950.953583
287085.2 3959.938009
288387.67 3975.491519
290293.43 3982.550342
292310.13 3991.150076
294724.58 4003.612746
296678.93 4010.037785
298801.41 4017.371733
300630.63 4025.265323
302496.4 4034.183807
304335.94 4043.151127
306211.6 4048.905137
308478.56 4056.378242
310995.35 4063.109068
313270.48 4070.582876
315365.44 4080.975446
317561.45 4087.16709
320156.07 4096.456217
322135.79 4109.773238
325003.46 4119.342481
327694.4 4128.767569
330046.5 4131.400256
331891.2 4143.046844
334157.73 4143.247917
336561 4150.989014
338829.25 4164.969773
341174.04 4166.836286
343280.61 4182.078904
345229.8 4187.645082
347200.92 4199.523172
349114.85 4206.58271
351033.94 4215.939334
353283.7 4224.68714
355979.37 4229.64741
357392.78 4246.359082
359537.19 4255.608284
362004.96 4263.355081
363889.22 4275.770698
365823.36 4286.404876
367661.61 4296.518764
369642.62 4308.177448
370980.35 4316.122
372819.89 4325.08932
374656.42 4336.991078
376561.32 4349.109447
378329.48 4360.794594
379800.94 4372.106824
380814.88 4386.869206
382357.72 4399.303102
383684.7 4410.090734
384745.51 4426.133513
386499.48 4440.196038
388103.38 4459.221199
389285.88 4481.909183
390103.74 4499.588885
390794.75 4515.726265
391368.8 4535.808348
391787.19 4551.409738
392444.66 4568.820394
393618.13 4584.364647
393884.3 4599.315505
394326.77 4614.792717
394894.8 4633.215777
395461.97 4652.404297
395908.31 4668.673091
396076.44 4688.438609
397422.34 4700.679048
398259.12 4715.170943
398613.01 4730.895106
398677.94 4746.338808
398858.97 4757.838893
399227.91 4774.431628
400773.76 4787.608458
402261.56 4794.630202
403418.26 4810.808933
403670.67 4831.500562
405104.72 4844.131038
406722.38 4857.415968
407907.46 4869.896947
409309.69 4882.014977
410585.93 4891.569366
411857.87 4905.461714
413035.21 4917.30499
414305.43 4932.855651
415478.04 4943.243442
416901.77 4956.051855
417614.28 4966.705046
418961.9 4985.19727
420422.61 5002.934013
422140.03 5021.459034
422901.99 5040.358624
424127.92 5058.380732
425290.64 5076.856561
426437.88 5094.565498
427042.89 5116.053947
427694.34 5139.077601
428433.51 5155.219259
428697.1 5172.721286
428877.27 5193.406509
428792.99 5212.665732
428657.11 5235.619511
427977.28 5256.228431
427083.74 5281.41156
427211.88 5297.499027
426205.25 5307.361578
424868.81 5325.48825
423245.13 5341.420279
421799.04 5356.729928
420336.61 5372.038154
418057.18 5384.722482
416985.62 5395.344784
414665.34 5400.752437
412446.97 5407.241942
410310.3 5415.421784
408072.15 5419.178255
403143.49 5419.456171
405483.98 5419.586721
401172.8 5422.777037
399419.26 5424.152517
397784.83 5427.06961
391779.02 5428.935058
395467.56 5429.670761
389881 5430.06752
393674.46 5430.404076
387806.25 5431.415569
385439.53 5434.904745
383349.73 5435.357429
380928.83 5440.995842
379189.48 5448.129703
374735.97 5449.01082
376873.07 5449.838538
372194.24 5451.081878
369825.8 5451.749561
367514.55 5453.090667
365003.78 5456.057432
362717.04 5460.065504
360078.56 5462.51019
357921.25 5465.891603
355395.43 5467.964092
352795.65 5473.716215
338950.51 5476.329514
342253.77 5476.366694
345436.2 5476.904924
347533.74 5477.091024
350280.15 5478.993192
336771.27 5480.652236
334385.2 5484.472671
331953.55 5488.850086
329137.48 5491.917157
326749.26 5492.853577
324055.31 5494.400972
321692.46 5494.829417
319504.19 5496.675974
316907.85 5496.94445
314532.53 5501.083938
302636.15 5502.325042
304709.61 5502.508997
306976.14 5502.710069
309820.16 5503.600542
312006.28 5503.794488
300697.28 5512.359666
298330.99 5515.722537
293379.54 5515.921381
291306.08 5515.992222
295790.55 5516.135284
288732.96 5517.422366
286191.23 5518.982761
283510.61 5521.476207
281153.78 5525.299209
278999.05 5525.872489
276488.71 5528.584464
274252.28 5530.682621
271766.45 5532.886621
269584.63 5536.520143
267056.66 5541.144886
264500.74 5541.30034
262124.13 5541.804716
259547.57 5543.157485
256782.24 5543.550263
254367.79 5547.291058
251923.24 5548.476744
249559.96 5552.597848
247028.12 5556.464334
241410.17 5556.603986
244378.03 5558.007509
238810.82 5559.818252
236241.57 5560.220323
233312.84 5560.478725
231057.06 5568.564421
228237.98 5571.384004
225562.09 5578.801868
218023.33 5579.025907
220706.96 5579.647324
223020.36 5580.872927
215223.6 5581.457416
212957.07 5581.638539
210356.86 5586.000986
208014.65 5589.366002
205520.65 5591.56765
199942.26 5591.966744
192097.34 5592.546949
202561.39 5593.092041
194604.24 5593.533803
197079.32 5594.009291
189918.1 5601.794735
187728.54 5605.044801
184718.97 5608.606517
182061.57 5613.728344
171548.07 5614.709901
176916.19 5615.186205
179181.86 5616.152724
174342.64 5616.998531
169338.3 5621.785842
159235.45 5630.075796
164443.18 5630.155628
162192.56 5630.338168
166917.4 5631.396576
156863.57 5639.051677
147054.41 5640.348398
149642.15 5640.578006
151860.52 5640.774813
154448.26 5641.004421
139686.79 5647.99028
145039 5648.465153
142433.63 5649.892448
137036.27 5652.527095
135269.4 5660.995623
132696.28 5662.169892
130376.86 5666.68577
124749.45 5667.972367
127530.26 5668.219063
122393.91 5673.836172
119834.98 5680.039564
116938.93 5682.462521
113977.09 5686.409595
111017.4 5688.443574
108507.06 5690.900755
106351.47 5692.622764
103739.65 5695.199431
101009.15 5698.018196
98321.22 5701.73474
92548.47 5703.519169
95553.74 5704.4239
89283.48 5705.39866
86483.75 5708.212355
83891.28 5712.575517
81601.96 5719.262142
78880.92 5723.613888
76211.05 5725.291353
73891.63 5730.060955
71536.95 5730.49343
69316 5733.231061
66538.63 5736.680559
63761.26 5741.542359
61356.7 5742.472445
57171.08 5748.864488
54534.32 5749.394987
59315.92 5749.95206
52145.67 5755.792292
49317.13 5758.118451
46992.55 5768.119936
43933.53 5772.696527
41117.46 5775.763599
38588.2 5781.408587
35901.99 5783.084622
33445.83 5786.081931
30543.76 5788.222746
27271.46 5797.500955
24802.4 5807.106336
21641.9 5819.942692
19379.24 5828.57068
17202.58 5835.267292
15387.55 5849.523894
13702.38 5863.153857
12852.27 5876.857943
11660.74 5894.486789
10774.08 5912.78079
10371.6 5929.332954
10245.18 5943.227535
9440.65 5959.614482
8858 5979.338023
8410.8 5997.819987




