ARQUIVO DE REFERENCIA
AMOSTRA: Si Photodiode UVS-series 
Usu√°rio: Paulo Henrique Diniz

Responsividade (A/W)	Comprimento de onda(nm)
0.088663 202.113366
0.096048 208.048836
0.103722 213.261824
0.111767 217.941287
0.12 223.217261
0.127635 228.493235
0.134521 233.769208
0.141616 239.704679
0.148215 246.613515
0.152335 253.55411
0.152435 261.46807
0.150439 269.382031
0.147245 277.295991
0.143652 285.209952
0.141058 293.123912
0.140226 301.037873
0.140758 308.951833
0.142056 316.865794
0.143752 324.779754
0.145848 332.693715
0.148642 340.607675
0.151537 348.521636
0.15483 356.435596
0.158023 364.349557
0.161616 372.263518
0.166107 380.177478
0.170997 388.091439
0.176985 396.005399
0.183293 403.259863
0.190239 409.85483
0.196092 415.3187
0.202259 419.793325
0.206886 423.774955
0.212514 427.661241
0.21925 432.937215
0.225987 438.213189
0.233711 444.148659
0.239659 450.523794
0.247603 457.338593
0.25431 463.93356
0.260417 470.528528
0.267204 477.782991
0.27419 485.037455
0.281016 491.632422
0.288453 498.094374
0.295243 504.872958
0.303067 509.94113
0.310417 514.714807
0.318201 519.990781
0.326285 525.266755
0.333493 529.305032
0.340855 534.24794
0.349278 541.754172
0.356607 547.268644
0.364009 552.30612
0.371394 560.879577
0.377039 568.793538
0.38337 576.707498
0.388659 584.621459
0.393799 591.875922
0.398902 598.815986
0.403843 604.56356
0.410236 610.34183
0.416942 616.936797
0.424008 623.531765
0.430954 630.126732
0.437541 636.721699
0.444846 643.976163
0.451932 651.890123
0.459716 661.123077
0.466303 669.037038
0.47249 676.950998
0.478578 684.864959
0.484766 692.778919
0.490982 700.598666
0.4973 707.947344
0.503599 715.484449
0.509995 721.137278
0.516402 728.391742
0.522589 736.305702
0.527679 744.219663
0.530932 752.087114
0.531172 760.047584
0.529476 767.961544
0.526482 775.875505
0.522889 783.789465
0.519097 791.703426
0.515846 799.7116
0.511512 807.531347
0.506389 815.445308
0.502659 822.730467
0.499047 828.039927
0.494959 834.570712
0.490354 841.825176
0.486063 849.739137
0.482733 854.990926
0.478877 861.610077
0.474786 869.524038
0.470355 877.833696
0.465305 885.351959
0.458858 892.606423
0.452032 898.541893
0.443549 903.817867
0.434666 909.753337
0.427681 913.710318
0.420295 917.667298
0.412312 921.624278
0.403729 925.581258
0.3982 928.219245
0.389757 932.176225
0.381374 936.133206
0.372392 940.090186
0.363011 944.047166
0.354628 948.004147
0.345596 951.631378
0.337263 955.918107
0.327881 959.875087
0.3187 963.832068
0.309918 967.789048
0.30182 971.400932
0.295127 974.228675
0.287563 977.022002
0.277982 980.978982
0.268401 984.935962
0.259819 988.233446
0.253531 990.871433
0.246645 993.50942
0.238462 996.806903
0.230278 999.884554
0.222993 1002.742374
0.215508 1005.38036
0.207894 1008.175547
0.200487 1010.876521
0.190159 1013.953818
0.181077 1017.251301
0.172993 1019.889288
0.165209 1022.527275
0.156826 1025.165262
0.149042 1027.803249
0.141557 1030.441235
0.133772 1033.079222
0.126287 1035.717209
0.119401 1038.355196
0.112515 1040.993183
0.106527 1042.971673
0.097688 1046.802149
0.08537 1052.204627
0.077585 1056.161607
0.069801 1060.118587
0.063414 1064.075568
0.055779 1068.692045
0.047546 1073.968018
0.040211 1079.243992
0.033025 1084.519966
0.02554 1089.795939
0.019914 1093.545118
0.014142 1097.677964

